
#Frequency (Hz) Flux (Jy)
 1.45e+18  4.140000e-09 
 3.15e+17  4.000000e-08 
 1.96e+15  6.770000e-05 
 1.96e+15  1.420000e-04 
 1.95e+15  6.020000e-05 
 1.95e+15  2.910000e-05 
 1.95e+15  6.440000e-05 
 1.95e+15  2.560000e-05 
 1.48e+15  1.930000e-04 
 1.48e+15  4.140000e-04 
 1.34e+15  2.000000e-04 
 1.34e+15  4.410000e-04 
 1.31e+15  2.550000e-04 
 1.31e+15  5.420000e-04 
 1.29e+15  2.320000e-04 
 1.29e+15  9.790000e-05 
 1.29e+15  2.410000e-04 
 1.29e+15  1.010000e-04 
 1.15e+15  8.560000e-04 
 1.15e+15  4.860000e-04 
 8.44e+14  1.990000e-03 
 8.44e+14  3.020000e-03 
 6.81e+14  4.670000e-03 
 6.81e+14  8.340000e-03 
 6.81e+14  4.850000e-03 
 6.81e+14  5.770000e-03 
 6.81e+14  4.800000e-03 
 6.81e+14  6.940000e-03 
 6.41e+14  6.860000e-03 
 6.40e+14  7.670000e-03 
 6.40e+14  1.060000e-02 
 5.42e+14  7.610000e-03 
 5.42e+14  1.080000e-02 
 5.42e+14  1.040000e-02 
 5.42e+14  1.740000e-02 
 5.42e+14  1.090000e-02 
 5.42e+14  1.090000e-02 
 4.86e+14  2.120000e-02 
 4.86e+14  1.700000e-02 
 4.68e+14  2.560000e-02 
 4.28e+14  2.470000e-02 
 4.28e+14  1.680000e-02 
 4.28e+14  2.270000e-02 
 4.01e+14  2.520000e-02 
 4.01e+14  2.990000e-02 
 3.36e+14  3.370000e-02 
 3.36e+14  3.830000e-02 
 2.50e+14  4.180000e-02 
 2.43e+14  5.660000e-02 
 2.43e+14  6.060000e-02 
 2.43e+14  2.240000e-02 
 2.43e+14  3.110000e-02 
 2.41e+14  7.240000e-02 
 2.40e+14  5.690000e-02 
 2.40e+14  3.930000e-02 
 2.40e+14  5.320000e-02 
 1.90e+14  5.830000e-02 
 1.84e+14  8.910000e-02 
 1.82e+14  7.230000e-02 
 1.82e+14  6.760000e-02 
 1.82e+14  5.320000e-02 
 1.82e+14  7.060000e-02 
 1.82e+14  7.410000e-02 
 1.80e+14  4.390000e-02 
 1.80e+14  2.950000e-02 
 1.39e+14  7.360000e-02 
 1.39e+14  7.130000e-02 
 1.39e+14  4.480000e-02 
 1.39e+14  3.170000e-02 
 1.38e+14  6.920000e-02 
 1.38e+14  5.410000e-02 
 1.38e+14  7.450000e-02 
 1.37e+14  7.410000e-02 
 1.36e+14  5.020000e-02 
 8.93e+13  4.700000e-02 
 8.93e+13  4.790000e-02 
 8.46e+13  5.090000e-02 
 8.46e+13  5.000000e-02 
 8.44e+13  3.690000e-02 
 8.44e+13  2.180000e-02 
 8.44e+13  4.810000e-02 
 6.68e+13  4.030000e-02 
 6.68e+13  3.970000e-02 
 6.67e+13  1.850000e-02 
 6.67e+13  2.990000e-02 
 6.67e+13  3.660000e-02 
 6.51e+13  3.930000e-02 
 6.51e+13  3.880000e-02 
 5.25e+13  1.390000e-01 
 5.25e+13  1.370000e-01 
 5.23e+13  1.170000e-01 
 5.23e+13  7.610000e-02 
 5.23e+13  1.400000e-01 
 3.89e+13  8.330000e-01 
 3.82e+13  4.310000e-01 
 3.82e+13  4.350000e-01 
 3.81e+13  4.560000e-01 
 2.56e+13  2.800000e-01 
 2.54e+13  4.150000e-01 
 2.54e+13  4.120000e-01 
 2.50e+13  5.200000e-01 
 2.50e+13  8.700000e-01 
 2.50e+13  4.970000e-01 
 2.50e+13  5.100000e-01 
 2.40e+13  4.030000e-01 
 1.68e+13  6.850000e-01 
 1.35e+13  1.830000e+00 
 1.35e+13  1.510000e+00 
 1.35e+13  1.520000e+00 
 1.35e+13  1.820000e+00 
 1.28e+13  1.980000e+00 
 1.28e+13  1.990000e+00 
 1.27e+13  2.020000e+00 
 1.27e+13  1.800000e+00 
 1.27e+13  1.860000e+00 
 1.20e+13  3.020000e+00 
 1.20e+13  2.030000e+00 
 1.20e+13  2.540000e+00 
 1.20e+13  2.500000e+00 
 1.20e+13  2.560000e+00 
 5.77e+12  1.120000e+01 
 5.26e+12  1.390000e+01 
 5.00e+12  1.800000e+01 
 5.00e+12  1.840000e+01 
 5.00e+12  1.730000e+01 
 5.00e+12  1.860000e+01 
 4.76e+12  2.300000e+01 
 4.20e+12  1.480000e+01 
 3.41e+12  3.300000e+01 
 3.00e+12  2.270000e+01 
 3.00e+12  2.260000e+01 
 3.00e+12  2.090000e+01 
 3.00e+12  2.160000e+01 
 2.46e+12  2.020000e+01 
 2.07e+12  1.980000e+01 
 1.92e+12  1.320000e+01 
 1.90e+12  2.470000e+01 
 1.76e+12  1.240000e+01 
 8.57e+11  1.690000e+00 
 8.57e+11  1.750000e+00 
 3.53e+11  1.320000e-01 
 2.25e+10  9.950000e-03 
 2.25e+10  9.950000e-03 
 1.06e+10  1.600000e-02 
 8.44e+09  2.230000e-02 
 4.85e+09  2.800000e-02 
 4.80e+09  3.120000e-02 
 1.40e+09  7.120000e-02 